Freq,Impedance
1,10.57
2,624.25
3,1241.57
4,2856.77
5,4381.88
6,4183.37
7,3650.03
8,4633.91
9,5410.39
10,4595.9
11,4086.56
12,4563.39
13,4349.7
14,3821.22
15,3663.42
16,3355.38
17,3351.73
18,3213.36
19,3089.86
20,3005.94
21,2909.67
22,2765.53
23,2634.97
24,2502.67
25,2470.22
26,2370.03
27,2280.17
28,2175.84
29,2128.31
30,2050.47
31,2007.93
32,1920.8
33,1902.01
34,1839.59
35,1848.89
36,1661.93
37,1705.05
38,1647.34
39,1587.19
40,1502.04
41,1480.09
42,1491.45
43,1440.9
44,1347.95
45,1361.74
46,1273.74
47,1257.15
48,1218.31
49,1200.41
50,1161.17
51,1127.94
52,1093.17
53,1063.67
54,1014.89
55,992.03
56,962.9
57,949.11
58,928.96
59,901.25
60,881.13
61,869.42
62,846.62
63,820.41
64,818.03
65,811.31
66,793.14
67,760.82
68,751.26
69,741.83
70,729.99
71,708.04
72,700.99
73,692.48
74,681.03
75,672.25
76,653.34
77,641.44
78,630.78
79,623.5
80,611.97
81,596.84
82,583.13
83,572.8
84,569.26
85,559.18
86,542.44
87,534.5
88,518.98
89,510.46
90,504.17
91,494.02
92,482.34
93,476.54
94,469.89
95,463.06
96,456.01
97,444.92
98,445.11
99,438.8
100,431.31
