Freq,Impedance
1,10.56
2,611.6
3,1193.03
4,2632.62
5,4510.72
6,3905.76
7,3650.03
8,4629.1
9,4733.21
10,4264.73
11,3734.36
12,4385.95
13,4088.77
14,3685.0
15,3437.43
16,3412.18
17,3236.6
18,2916.04
19,2855.64
20,2833.02
21,2716.43
22,2656.46
23,2492.13
24,2372.4
25,2288.62
26,2200.32
27,2187.39
28,2008.32
29,2030.08
30,1929.31
31,1920.8
32,1786.23
33,1830.03
34,1789.91
35,1697.52
36,1637.98
37,1639.75
38,1593.61
39,1526.26
40,1475.05
41,1463.6
42,1458.57
43,1367.51
44,1299.69
45,1316.86
46,1242.43
47,1219.24
48,1165.15
49,1171.52
50,1131.68
51,1100.07
52,1070.19
53,1018.77
54,998.66
55,976.61
56,946.7
57,934.31
58,907.34
59,871.79
60,855.92
61,857.92
62,830.03
63,809.83
64,797.74
65,796.85
66,768.74
67,756.01
68,741.69
69,730.89
70,718.38
71,709.67
72,700.04
73,680.28
74,672.42
75,657.62
76,650.13
77,632.16
78,620.03
79,612.68
80,598.39
81,588.72
82,576.55
83,571.34
84,558.55
85,547.44
86,541.37
87,526.24
88,518.34
89,511.47
90,499.99
91,499.37
92,485.45
93,477.86
94,474.69
95,467.24
96,458.24
97,451.37
98,446.73
99,443.19
100,434.41
