Freq,Impedance
1,10.57
2,624.25
3,1240.12
4,2841.86
5,4629.1
6,4284.87
7,3726.83
8,5024.64
9,5102.03
10,4558.81
11,4069.08
12,4420.34
13,4140.4
14,3814.94
15,3685.0
16,3760.65
17,3421.83
18,3328.32
19,3043.85
20,3099.9
21,2813.44
22,2935.42
23,2677.24
24,2697.25
25,2573.51
26,2524.42
27,2524.42
28,2236.2
29,2249.84
30,2187.39
31,2148.48
32,2105.84
33,2030.08
34,1969.41
35,1949.53
36,1798.38
37,1848.48
38,1696.49
39,1719.86
40,1607.35
41,1607.68
42,1601.09
43,1491.29
44,1416.69
45,1432.06
46,1358.01
47,1330.61
48,1291.24
49,1287.13
50,1238.52
51,1211.94
52,1168.6
53,1102.79
54,1109.53
55,1058.68
56,1015.11
57,999.69
58,965.29
59,942.3
60,918.12
61,911.29
62,878.64
63,868.95
64,846.28
65,832.93
66,822.29
67,811.31
68,786.43
69,775.38
70,753.26
71,748.96
72,735.05
73,719.12
74,698.29
75,699.52
76,684.32
77,670.77
78,657.63
79,646.36
80,637.2
81,631.38
82,614.92
83,607.55
84,590.5
85,584.13
86,570.98
87,558.35
88,549.85
89,540.36
90,534.56
91,531.1
92,513.39
93,507.97
94,498.49
95,492.24
96,484.92
97,473.42
98,470.15
99,464.35
100,457.27
